File: Resources/Input/HRSA2420 6717330 HR_GASSORP 000-617_Table.csv
Relative Pressure,Absolute Pressure,Adsorbed Amount,Elapsed Time,Saturation Pressure,BJH-A-CuPV_(Pore Width),BJH-A-CuPV_(Pore Volume),BJH-A-PoSD_(Pore Width),BJH-A-PoSD_(dV/dlog(D)PV),BJH-D-CuPV_(Pore Width),BJH-D-CuPV_(Pore Volume),BJH-D-PoSD_(Pore Width),BJH-D-PoSD_(dV/dlog(D)PV)
0.000287134,0.220099,3.5018,04:53,766.538,75.5049,0.255854,89.4288,0.0696258,57.9862,0.00912569,66.7758,0.000400909
0.002401805,1.838619,6.5218,06:44,765.516,38.4988,0.22736,45.8006,0.185893,43.8695,0.0170204,48.918,0.00073852
0.006100759,4.665473,8.7780,08:28,764.737,26.7602,0.179519,30.4821,0.163253,38.4688,0.0220415,40.7968,0.00115645
0.007587312,5.777565,9.4611,14:45,761.477,21.0601,0.150642,23.2003,0.12712,29.3078,0.0420875,32.5996,0.00409288
0.009722341,7.402130,10.2577,14:51,761.353,17.1711,0.135892,18.6985,0.118271,23.182,0.0788833,25.4908,0.00608871
0.0252328,19.2098,14.1464,15:00,761.301,14.4731,0.12511,15.5778,0.116986,17.9695,0.108735,19.8758,0.00479479
0.0412056,31.3691,16.7402,15:04,761.284,12.4645,0.116449,13.309,0.120969,14.3234,0.124882,15.7047,0.00432913
0.058363,44.431,18.7963,15:09,761.287,10.9131,0.108829,11.5786,0.131617,12.3362,0.133807,13.1683,0.00466374
0.0729583,55.5457,20.2102,15:13,761.335,9.68149,0.101582,10.2183,0.144363,11.5926,0.137323,11.939,0.00492379
0.0992843,75.5882,22.2938,15:17,761.331,8.69031,0.0944448,9.12842,0.156715,10.2683,0.144334,10.8422,0.00571339
0.124406,94.7054,23.9698,15:21,761.262,7.85753,0.0873698,8.22882,0.167715,9.18612,0.151032,9.66061,0.00682943
0.149447,113.742,25.4671,15:25,761.082,7.16488,0.0802766,7.4768,0.17474,8.32472,0.157501,8.70829,0.00824122
0.174434,132.748,26.8682,15:29,761.018,6.56629,0.0733422,6.83747,0.176259,7.59132,0.164108,7.92028,0.0101098
0.199472,151.782,28.2108,15:33,760.917,6.05182,0.0666278,6.28644,0.173034,6.97821,0.171024,7.25583,0.012539
0.224453,170.785,29.5373,15:37,760.894,5.59475,0.0603685,5.80395,0.167243,6.43877,0.17849,6.68407,0.0154789
0.249491,189.816,30.8525,15:41,760.813,5.19312,0.054565,5.37782,0.159747,5.97317,0.186491,6.18624,0.0189277
0.274507,208.811,32.1778,15:44,760.675,4.83301,0.0492329,4.99914,0.150629,5.55573,0.195096,5.74731,0.0220162
0.29951,227.809,33.5290,15:48,760.603,4.5099,0.0443645,4.65943,0.139619,5.1844,0.20374,5.35546,0.0240133
0.324474,246.811,34.9348,15:52,760.65,4.2173,0.0399655,4.35306,0.127999,4.85098,0.211981,5.00505,0.0247854
0.349507,265.81,36.4021,15:56,760.527,3.94796,0.0360635,4.07309,0.116168,4.54851,0.219449,4.6886,0.0240755
0.374019,284.476,37.9498,16:00,760.592,3.70383,0.0325731,3.81755,0.104975,4.2718,0.225923,4.40019,0.0225734
0.398993,303.467,39.6458,16:04,760.583,3.47652,0.0294984,3.58248,0.0938613,4.13648,0.228921,4.20163,0.0215793
0.423869,322.375,41.4706,16:08,760.552,3.26587,0.0267752,3.36416,0.0828286,4.01158,0.231563,4.07182,0.0205619
0.448756,341.269,43.4477,16:13,760.478,3.06961,0.0243671,3.16126,0.072075,3.89377,0.233897,3.95065,0.0196814
0.47366,360.151,45.5755,16:18,760.356,2.8851,0.0222876,2.97127,0.061431,3.78068,0.236061,3.8353,0.0191864
0.498345,378.953,47.8652,16:23,760.424,2.71464,0.0205,2.79436,0.0521875,3.72165,0.23712,3.75063,0.0191158
0.523339,397.875,50.3696,16:28,760.262,2.54999,0.0190097,2.62687,0.0442153,3.66797,0.238142,3.69436,0.0190916
0.54811,416.708,53.0721,16:34,760.265,2.39404,0.0177516,2.46683,0.0379844,3.56965,0.240039,3.61726,0.0188883
0.572916,435.535,56.0265,16:40,760.208,2.24488,0.016636,2.31443,0.0331797,3.46627,0.242072,3.51619,0.018034
0.597809,454.479,59.2279,16:46,760.241,2.10161,0.0156679,2.16831,0.0294861,3.36728,0.243856,3.41511,0.0161874
0.62262,473.292,62.6741,16:52,760.163,1.96308,0.0147874,2.02744,0.0266227,3.18663,0.2463,3.27116,0.011442
0.647629,492.182,66.3862,16:59,759.976,1.82863,0.0139724,1.89093,0.0242868,3.01265,0.247884,3.09394,0.00788062
0.672334,510.879,70.3471,17:06,759.859,1.69644,0.0131826,1.75745,0.0226049,2.84505,0.248975,2.92323,0.00599242
0.697287,529.795,74.5848,17:13,759.795,1.56569,0.0124448,1.62573,0.0218932,2.68727,0.24982,2.76087,0.00553179
0.722037,548.671,78.9752,17:20,759.892,1.43406,0.0116779,1.49405,0.0223486,"","","",""
0.747152,567.682,83.5164,17:27,759.795,1.29887,0.0108558,1.3598,0.0242852,"","","",""
0.771933,586.519,88.1044,17:34,759.806,1.14923,0.00986606,1.21509,0.0283487,"","","",""
0.796923,605.462,92.8130,17:41,759.749,1.05962,0.00848758,1.10091,0.0310428,"","","",""
0.821782,624.327,97.6747,17:49,759.724,0.94301,0.0074294,0.994884,0.0328702,"","","",""
0.846388,643.094,102.8567,17:56,759.809,0.81334,0.00577887,0.869362,0.0309511,"","","",""
0.87064,661.607,108.7768,18:04,759.909,0.633924,0.00365175,0.704229,0.0161917,"","","",""
0.894837,679.934,116.1509,18:13,759.841,0.597793,0.00109588,0.614963,0.0136892,"","","",""
0.917658,697.268,126.1867,18:25,759.835,0.568651,0.000754699,0.582617,0.0112666,"","","",""
0.943295,716.558,145.7953,18:42,759.633,0.465737,0.000429432,0.509059,0.00173579,"","","",""
0.971563,737.68,179.0380,19:11,759.272,,,,,,,,
0.984808,747.648,191.6984,19:24,759.181,,,,,,,,
0.991527,752.696,199.7691,19:35,759.128,,,,,,,,
0.975427,740.714,191.9601,19:44,759.374,,,,,,,,
0.962557,731.053,185.5122,19:54,759.491,,,,,,,,
0.950075,721.721,180.0663,20:02,759.646,,,,,,,,
0.942815,716.318,176.6617,20:10,759.766,,,,,,,,
0.924228,702.062,163.4592,20:28,759.621,,,,,,,,
0.90343,686.34,140.0404,20:51,759.704,,,,,,,,
0.874436,664.196,121.2687,21:06,759.571,,,,,,,,
0.841638,639.339,110.8535,21:19,759.637,,,,,,,,
0.815751,619.548,104.9981,21:27,759.482,,,,,,,,
0.803854,610.493,102.6766,21:33,759.458,,,,,,,,
0.778585,591.254,98.0981,21:40,759.395,,,,,,,,
0.752841,571.76,93.7857,21:47,759.469,,,,,,,,
0.727927,552.796,89.7198,21:54,759.412,,,,,,,,
0.702673,533.628,85.6629,22:01,759.426,,,,,,,,
0.677942,514.831,81.5549,22:08,759.402,,,,,,,,
0.652797,495.659,77.2459,22:16,759.284,,,,,,,,
0.627996,476.836,72.7685,22:23,759.298,,,,,,,,
0.602835,457.759,68.0660,22:31,759.344,,,,,,,,
0.577716,438.729,63.3964,22:39,759.421,,,,,,,,
0.552602,419.679,58.9399,22:47,759.459,,,,,,,,
0.527413,400.519,54.8370,22:54,759.402,,,,,,,,
0.502094,381.303,51.1639,23:00,759.426,,,,,,,,
0.488837,371.282,49.4068,23:06,759.521,,,,,,,,
0.476053,361.59,47.8173,23:11,759.559,,,,,,,,
0.463487,351.977,46.3629,23:16,759.411,,,,,,,,
0.450937,342.438,44.9815,23:21,759.392,,,,,,,,
0.44419,337.313,44.2803,23:24,759.389,,,,,,,,
0.437934,332.602,43.6171,23:28,759.481,,,,,,,,
0.426169,323.641,42.3828,23:33,759.42,,,,,,,,
0.413361,313.919,41.0568,23:38,759.431,,,,,,,,
0.400658,304.262,39.8307,23:42,759.404,,,,,,,,
0.376329,285.826,37.8467,23:47,759.51,,,,,,,,
0.351437,266.853,36.1550,23:51,759.321,,,,,,,,
0.32605,247.555,34.6246,23:55,759.252,,,,,,,,
0.300868,228.398,33.1965,23:59,759.131,,,,,,,,