File: Resources/Input/HRSA2420 9999999 HR_GASSORP 000-617_Table.csv
Relative Pressure,Absolute Pressure,Adsorbed Amount,Elapsed Time,Saturation Pressure,BJH-A-CuPV_(Pore Width),BJH-A-CuPV_(Pore Volume),BJH-A-PoSD_(Pore Width),BJH-A-PoSD_(dV/dlog(D)PV),BJH-D-CuPV_(Pore Width),BJH-D-CuPV_(Pore Volume),BJH-D-PoSD_(Pore Width),BJH-D-PoSD_(dV/dlog(D)PV)
0.000315847,0.2421089,3.85198,5:22,843.191,83.05539,0.2814394,98.37168,0.07658838,63.78482,0.0100383,73.45338,0.000441
0.002641986,2.02248,7.17398,7:24,842.067,42.34868,0.250096,50.38066,0.2044823,48.25645,0.01872244,53.8098,0.000812372
0.006710835,5.13202,9.6558,9:18,841.21,29.43622,0.1974709,33.53031,0.1795783,42.31568,0.02424565,44.87648,0.001272095
0.008346043,6.35532,10.40721,16:13,837.625,23.16611,0.1657062,25.52033,0.139832,32.23858,0.04629625,35.85956,0.004502168
0.0106946,8.142343,11.28347,16:20,837.488,18.88821,0.1494812,20.56835,0.1300981,25.5002,0.08677163,28.03988,0.006697581
0.0277561,21.1308,15.56104,16:30,837.431,15.92041,0.137621,17.13558,0.1286846,19.76645,0.1196085,21.86338,0.005274269
0.0453261,34.506,18.41422,16:34,837.412,13.71095,0.1280939,14.6399,0.1330659,15.75574,0.1373702,17.27517,0.004762043
0.0641993,48.8741,20.67593,16:39,837.415,12.00441,0.1197119,12.73646,0.1447787,13.56982,0.1471877,14.48513,0.005130114
0.0802541,61.1003,22.23122,16:44,837.469,10.6496,0.1117402,11.24013,0.1587993,12.75186,0.1510553,13.1329,0.005416169
0.109213,83.147,24.52318,16:48,837.464,9.559341,0.103889,10.0413,0.1723865,11.29513,0.1587674,11.92642,0.006284729
0.136846,104.176,26.36678,16:53,837.388,8.643283,0.09610678,9.051702,0.1844865,10.1047,0.1661352,10.6267,0.007512373
0.164392,125.116,28.01381,16:57,837.19,7.881368,0.08830426,8.22448,0.192214,9.157192,0.1732511,9.579119,0.009065342
0.191878,146.023,29.55502,17:01,837.12,7.222919,0.08067642,7.521217,0.1938849,8.350452,0.1805188,8.712308,0.01112078
0.21942,166.96,31.03188,17:06,837.009,6.657002,0.07329058,6.915084,0.1903374,7.676031,0.1881264,7.981413,0.0137929
0.246899,187.864,32.49103,17:10,836.983,6.154225,0.06640535,6.384345,0.1839673,7.082647,0.196339,7.352477,0.01702679
0.27444,208.798,33.93775,17:15,836.895,5.712432,0.0600215,5.915602,0.1757217,6.570487,0.2051401,6.804864,0.02082047
0.301958,229.692,35.39558,17:18,836.743,5.316311,0.05415619,5.499054,0.1656919,6.111303,0.2146056,6.322041,0.02421782
0.329462,250.59,36.8819,17:22,836.664,4.96089,0.04880095,5.125373,0.1535809,5.70284,0.224114,5.891006,0.02641463
0.356921,271.492,38.42828,17:27,836.715,4.63903,0.04396205,4.788366,0.1407989,5.336078,0.2331791,5.505555,0.02726394
0.384458,292.391,40.04231,17:31,836.58,4.342756,0.03966985,4.480399,0.1277848,5.003361,0.2413939,5.15746,0.02648305
0.41142,312.923,41.74478,17:36,836.651,4.074213,0.03583041,4.199305,0.1154725,4.69898,0.2485153,4.840209,0.02483074
0.438892,333.814,43.61038,17:40,836.641,3.824172,0.03244824,3.940728,0.103247,4.550128,0.2518131,4.621793,0.02373723
0.466256,354.612,45.61766,17:44,836.607,3.592457,0.02945272,3.700576,0.09111146,4.412738,0.2547193,4.479002,0.02261809
0.493631,375.396,47.79247,17:50,836.526,3.376571,0.02680381,3.477386,0.0792825,4.283147,0.2572867,4.345715,0.02164954
0.521026,396.166,50.13305,17:55,836.392,3.17361,0.02451636,3.268397,0.0675741,4.158748,0.2596671,4.21883,0.02110504
0.548179,416.849,52.65172,18:01,836.467,2.986104,0.02255,3.073796,0.05740625,4.093815,0.260832,4.125693,0.02102738
0.575673,437.662,55.40656,18:06,836.288,2.804989,0.02091067,2.889557,0.04863683,4.034767,0.2619562,4.063796,0.02100076
0.602921,458.379,58.37931,18:13,836.291,2.633444,0.01952676,2.713513,0.04178284,3.926615,0.2640429,3.978986,0.02077713
0.630207,479.089,61.62915,18:20,836.229,2.469368,0.0182996,2.545873,0.03649767,3.812897,0.2662792,3.867809,0.0198374
0.65759,499.927,65.15069,18:26,836.265,2.311771,0.01723469,2.385141,0.03243471,3.704008,0.2682416,3.756621,0.01780614
0.684881,520.622,68.94151,18:33,836.179,2.159388,0.01626614,2.230184,0.02928497,3.505293,0.27093,3.598276,0.0125862
0.712392,541.401,73.02482,18:40,835.973,2.011493,0.01536964,2.080023,0.02671548,3.313915,0.2726724,3.403334,0.008668682
0.739567,561.967,77.38181,18:48,835.845,1.866084,0.01450086,1.933195,0.02486539,3.129555,0.2738725,3.215553,0.006591662
0.767016,582.775,82.04328,18:56,835.774,1.722259,0.01368928,1.788303,0.02408252,2.955997,0.274802,3.036957,0.006084969
0.794241,603.538,86.87272,19:04,835.882,1.577466,0.01284569,1.643455,0.02458346,,,,
0.821867,624.45,91.86804,19:11,835.774,1.428757,0.01194138,1.49578,0.02671372,,,,
0.849126,645.171,96.91484,19:19,835.786,1.264153,0.0108527,1.336599,0.03118357,,,,
0.876616,666.008,102.0943,19:27,835.724,1.165582,0.009336338,1.211001,0.03414708,,,,
0.90396,686.76,107.442,19:35,835.696,1.037311,0.00817234,1.09437,0.03615722,,,,
0.931027,707.403,113.142,19:43,835.79,0.894674,0.006356757,0.9562982,0.03404621,,,,
0.957704,727.768,119.654,19:52,835.9,0.6973164,0.004016925,0.7746519,0.01781087,,,,
0.984321,747.927,127.766,20:02,835.825,0.6575723,0.001205468,0.6764593,0.01505812,,,,
1.00942,766.995,138.805,20:15,835.818,0.6255161,0.000830169,0.6408787,0.01239326,,,,
1.03762,788.214,160.375,20:34,835.596,0.5123107,0.000472375,0.5599649,0.001909369,,,,
1.06872,811.448,196.9418,21:06,835.199,,,,,,,,
1.08329,822.412,210.868,21:20,835.099,,,,,,,,
1.09068,827.965,219.746,21:32,835.04,,,,,,,,
1.07297,814.785,211.156,21:42,835.311,,,,,,,,
1.05881,804.159,204.063,21:53,835.44,,,,,,,,
1.04508,793.893,198.073,22:02,835.611,,,,,,,,
1.0371,787.95,194.328,22:11,835.742,,,,,,,,
1.01665,772.269,179.805,22:30,835.583,,,,,,,,
0.993773,754.973,154.044,22:56,835.674,,,,,,,,
0.961879,730.616,133.396,23:12,835.528,,,,,,,,
0.925801,703.273,121.939,23:26,835.601,,,,,,,,
0.897326,681.503,115.498,23:35,835.43,,,,,,,,
0.884239,671.543,112.944,23:42,835.404,,,,,,,,
0.856444,650.379,107.908,23:50,835.335,,,,,,,,
0.828126,628.936,103.164,23:57,835.416,,,,,,,,
0.80072,608.076,98.69178,0:05,835.353,,,,,,,,
0.772941,586.991,94.22919,0:13,835.369,,,,,,,,
0.745736,566.314,89.71039,0:20,835.343,,,,,,,,
0.718077,545.224,84.97049,0:29,835.212,,,,,,,,
0.690795,524.52,80.04535,0:37,835.228,,,,,,,,
0.663119,503.535,74.8726,0:46,835.278,,,,,,,,
0.635487,482.602,69.73604,0:54,835.363,,,,,,,,
0.607862,461.646,64.83389,1:03,835.405,,,,,,,,
0.580154,440.571,60.3207,1:11,835.343,,,,,,,,
0.552303,419.433,56.28029,1:18,835.369,,,,,,,,
0.537721,408.41,54.34748,1:24,835.473,,,,,,,,
0.523659,397.75,52.59903,1:30,835.515,,,,,,,,
0.509836,387.175,50.99919,1:35,835.352,,,,,,,,
0.496031,376.682,49.47965,1:41,835.331,,,,,,,,
0.4886094,371.045,48.70833,1:44,835.328,,,,,,,,
0.481728,365.863,47.97881,1:48,835.429,,,,,,,,
0.468786,356.006,46.62108,1:54,835.362,,,,,,,,
0.454697,345.311,45.16248,1:59,835.374,,,,,,,,
0.440724,334.688,43.81377,2:04,835.345,,,,,,,,
0.413962,314.409,41.63137,2:09,835.462,,,,,,,,
0.38658,293.539,39.7705,2:14,835.253,,,,,,,,
0.358656,272.31,38.08706,2:18,835.177,,,,,,,,
0.330955,251.238,36.51615,2:22,835.044,,,,,,,,